File: input/common/input/solar/solar_spectrum_02368_2.txt
Solar Doppler Velocity [m/s]:   298.33                # Note: Positive means FOV moving TOWARDS the sun.
Solar Intensity Units are: ph/s/m^2/um
Distance to Sun in AU:    1.00721
S = Solar Rest Frame.  E = earth-centered rest frame.
        Wavenumber_E        Wavenumber_S   Wavelength_S [um]       Transmittance           Intensity
          6288.29          6288.28        1.59026        0.787969        0.165611E+22
          6287.22          6287.21        1.59053        0.986706        0.207321E+22
          6286.15          6286.14        1.5908        0.97801        0.205434E+22
          6285.08          6285.07        1.59107        0.908144        0.190704E+22
          6284.01          6284        1.59134        0.922389        0.193639E+22
          6282.94          6282.93        1.59161        0.963585        0.202229E+22
          6281.87          6281.86        1.59188        0.988601        0.207419E+22
          6280.8          6280.79        1.59216        0.939638        0.197089E+22
          6279.73          6279.72        1.59243        0.97583        0.204621E+22
          6278.66          6278.65        1.5927        0.95455        0.200101E+22
          6277.59          6277.58        1.59297        0.999664        0.209497E+22
          6276.52          6276.51        1.59324        0.916632        0.192041E+22
          6275.45          6275.44        1.59351        0.999936        0.209432E+22
          6274.38          6274.37        1.59378        0.996954        0.208747E+22
          6273.31          6273.3        1.59406        0.999667        0.209254E+22
          6272.24          6272.23        1.59433        0.850167        0.177908E+22
          6271.17          6271.16        1.5946        0.921999        0.192884E+22
          6270.1          6270.09        1.59487        0.997803        0.208682E+22
          6269.03          6269.02        1.59514        0.999389        0.208952E+22
          6267.96          6267.95        1.59542        0.998458        0.208697E+22
          6266.89          6266.88        1.59569        0.949425        0.198390E+22
          6265.82          6265.81        1.59596        0.959791        0.200497E+22
          6264.75          6264.74        1.59623        0.93576        0.195420E+22
          6263.68          6263.67        1.59651        0.851234        0.177716E+22
          6262.61          6262.6        1.59678        0.973008        0.203080E+22
          6261.54          6261.53        1.59705        0.994036        0.207408E+22
          6260.47          6260.46        1.59733        0.993679        0.207272E+22
          6259.4          6259.39        1.5976        0.99133        0.206722E+22
          6258.33          6258.32        1.59787        0.987219        0.205804E+22
          6257.26          6257.25        1.59815        0.992927        0.206933E+22
          6256.19          6256.18        1.59842        0.97085        0.202272E+22
          6255.12          6255.11        1.59869        0.979747        0.204066E+22
          6254.05          6254.04        1.59897        0.99805        0.207817E+22
          6252.98          6252.97        1.59924        0.993926        0.206897E+22
          6251.91          6251.9        1.59951        0.997913        0.207666E+22
          6250.84          6250.83        1.59979        0.99833        0.207691E+22
          6249.77          6249.76        1.60006        0.998071        0.207576E+22
          6248.7          6248.69        1.60033        0.997697        0.207436E+22
          6247.63          6247.62        1.60061        0.997539        0.207342E+22
          6246.56          6246.55        1.60088        0.935262        0.194340E+22
          6245.49          6245.48        1.60116        0.798214        0.165813E+22
          6244.42          6244.41        1.60143        0.943946        0.196028E+22
          6243.35          6243.34        1.60171        0.990483        0.205631E+22
          6242.28          6242.27        1.60198        0.948997        0.196960E+22
          6241.21          6241.2        1.60226        0.995981        0.206650E+22
          6240.14          6240.13        1.60253        0.9695        0.201095E+22
          6239.07          6239.06        1.6028        0.996638        0.206663E+22
          6238          6237.99        1.60308        0.997394        0.206758E+22
          6236.93          6236.92        1.60335        0.976733        0.202415E+22
          6235.86          6235.85        1.60363        0.997223        0.206599E+22
          6234.79          6234.78        1.6039        0.995623        0.206206E+22
          6233.72          6233.71        1.60418        0.960388        0.198849E+22
          6232.65          6232.64        1.60446        0.947425        0.196106E+22
          6231.58          6231.57        1.60473        0.85218        0.176339E+22
          6230.51          6230.5        1.60501        0.987515        0.204282E+22
          6229.44          6229.43        1.60528        0.995431        0.205858E+22
          6228.37          6228.36        1.60556        0.995044        0.205716E+22
          6227.3          6227.29        1.60583        0.995831        0.205817E+22
          6226.23          6226.22        1.60611        0.992439        0.205054E+22
          6225.16          6225.15        1.60639        0.923425        0.190738E+22
          6224.09          6224.08        1.60666        0.988905        0.204201E+22
          6223.02          6223.01        1.60694        0.984891        0.203311E+22
          6221.95          6221.94        1.60721        0.992809        0.204884E+22
          6220.88          6220.87        1.60749        0.974701        0.201086E+22
          6219.81          6219.8        1.60777        0.988563        0.203885E+22
          6218.74          6218.73        1.60804        0.798331        0.164601E+22
          6217.67          6217.66        1.60832        0.992885        0.204652E+22
          6216.6          6216.59        1.6086        0.99252        0.204515E+22
          6215.53          6215.52        1.60887        0.991525        0.204248E+22
          6214.46          6214.45        1.60915        0.915549        0.188540E+22
          6213.39          6213.38        1.60943        0.963527        0.198360E+22
          6212.32          6212.31        1.60971        0.976985        0.201070E+22
          6211.25          6211.24        1.60998        0.889106        0.182928E+22
          6210.18          6210.17        1.61026        0.981842        0.201947E+22
          6209.11          6209.1        1.61054        0.968798        0.199203E+22
          6208.04          6208.03        1.61082        0.976377        0.200701E+22
          6206.97          6206.96        1.61109        0.981165        0.201624E+22
          6205.9          6205.89        1.61137        0.980724        0.201471E+22
          6204.83          6204.82        1.61165        0.981182        0.201504E+22
          6203.76          6203.75        1.61193        0.951767        0.195403E+22
          6202.69          6202.68        1.61221        0.976416        0.200403E+22
          6201.62          6201.61        1.61248        0.985941        0.202296E+22
          6200.55          6200.54        1.61276        0.951711        0.195213E+22
          6199.48          6199.47        1.61304        0.640877        0.131415E+22
          6198.41          6198.4        1.61332        0.953726        0.195506E+22
          6197.34          6197.33        1.6136        0.988844        0.202643E+22
          6196.27          6196.26        1.61388        0.985552        0.201907E+22
          6195.2          6195.19        1.61415        0.964061        0.197443E+22
          6194.13          6194.12        1.61443        0.993017        0.203311E+22
          6193.06          6193.05        1.61471        0.989866        0.202604E+22
          6191.99          6191.98        1.61499        0.993881        0.203363E+22
          6190.92          6190.91        1.61527        0.994179        0.203361E+22
          6189.85          6189.84        1.61555        0.951968        0.194667E+22
          6188.78          6188.77        1.61583        0.981974        0.200741E+22
          6187.71          6187.7        1.61611        0.831315        0.169890E+22
          6186.64          6186.63        1.61639        0.99493        0.203264E+22
          6185.57          6185.56        1.61667        0.979382        0.200025E+22
          6184.5          6184.49        1.61695        0.588128        0.120080E+22
          6183.43          6183.42        1.61723        0.994271        0.202941E+22
          6182.36          6182.35        1.61751        0.990822        0.202174E+22
          6181.29          6181.28        1.61779        0.995754        0.203117E+22
          6180.22          6180.21        1.61807        0.994944        0.202889E+22
          6179.15          6179.14        1.61835        0.981158        0.200016E+22
          6178.08          6178.07        1.61863        0.98536        0.200810E+22
          6177.01          6177        1.61891        0.992771        0.202257E+22
          6175.94          6175.93        1.61919        0.994172        0.202480E+22
          6174.87          6174.86        1.61947        0.985999        0.200753E+22
          6173.8          6173.79        1.61975        0.992236        0.201960E+22
          6172.73          6172.72        1.62003        0.983669        0.200153E+22
          6171.66          6171.65        1.62031        0.82622        0.168064E+22
          6170.59          6170.58        1.62059        0.908238        0.184690E+22
          6169.52          6169.51        1.62087        0.73582        0.149582E+22
          6168.45          6168.44        1.62115        0.97222        0.197577E+22
          6167.38          6167.37        1.62144        0.977834        0.198655E+22
          6166.31          6166.3        1.62172        0.970865        0.197178E+22
          6165.24          6165.23        1.622        0.689168        0.139923E+22
          6164.17          6164.16        1.62228        0.995225        0.201999E+22
          6163.88          6163.87        1.62236        0.997058        0.202353E+22