File: input/common/input/solar/solar_spectrum_02368_1.txt
Solar Doppler Velocity [m/s]:   298.33                # Note: Positive means FOV moving TOWARDS the sun.
Solar Intensity Units are: ph/s/m^2/um
Distance to Sun in AU:    1.00721
S = Solar Rest Frame.  E = earth-centered rest frame.
        Wavenumber_E        Wavenumber_S   Wavelength_S [um]       Transmittance           Intensity
         13200.2         13200.2        0.757562        0.967478        0.467949E+22
         13198.1         13198        0.757688        0.995519        0.481451E+22
         13195.9         13195.9        0.757814        0.99999        0.483552E+22
         13193.7         13193.7        0.757939        0.995256        0.481202E+22
         13191.5         13191.5        0.758065        0.993525        0.480304E+22
         13189.3         13189.3        0.758191        0.999373        0.483070E+22
         13187.1         13187.1        0.758317        0.999873        0.483250E+22
         13184.9         13184.9        0.758443        0.998726        0.482635E+22
         13182.7         13182.7        0.758569        0.982168        0.474573E+22
         13180.5         13180.5        0.758695        0.995669        0.481035E+22
         13178.4         13178.3        0.758821        0.722057        0.348801E+22
         13176.2         13176.1        0.758947        0.998939        0.482492E+22
         13174         13174        0.759073        0.994122        0.480104E+22
         13171.8         13171.8        0.7592        0.994589        0.480268E+22
         13169.6         13169.6        0.759326        0.998822        0.482251E+22
         13167.4         13167.4        0.759452        0.996929        0.481276E+22
         13165.2         13165.2        0.759578        0.998664        0.482051E+22
         13163         13163        0.759705        0.998086        0.481711E+22
         13160.8         13160.8        0.759831        0.996832        0.481044E+22
         13158.6         13158.6        0.759958        0.995258        0.480223E+22
         13156.5         13156.4        0.760084        0.992032        0.478605E+22
         13154.3         13154.2        0.760211        0.98137        0.473401E+22
         13152.1         13152.1        0.760337        0.96927        0.467504E+22
         13149.9         13149.9        0.760464        0.989735        0.477313E+22
         13147.7         13147.7        0.760591        0.994517        0.479558E+22
         13145.5         13145.5        0.760717        0.994332        0.479407E+22
         13143.3         13143.3        0.760844        0.959544        0.462575E+22
         13141.1         13141.1        0.760971        0.997337        0.480732E+22
         13138.9         13138.9        0.761098        0.991488        0.477851E+22
         13136.7         13136.7        0.761225        0.961186        0.463188E+22
         13134.5         13134.5        0.761352        0.998719        0.481213E+22
         13132.4         13132.3        0.761479        0.999427        0.481492E+22
         13130.2         13130.2        0.761606        0.99904        0.481243E+22
         13128         13128        0.761733        0.996882        0.480142E+22
         13125.8         13125.8        0.76186        0.995854        0.479584E+22
         13123.6         13123.6        0.761987        0.999054        0.481063E+22
         13121.4         13121.4        0.762114        0.971583        0.467775E+22
         13119.2         13119.2        0.762241        0.994458        0.478726E+22
         13117         13117        0.762368        0.999903        0.481285E+22
         13114.8         13114.8        0.762496        0.999921        0.481231E+22
         13112.6         13112.6        0.762623        0.999898        0.481158E+22
         13110.5         13110.4        0.762751        0.999999        0.481144E+22
         13108.3         13108.3        0.762878        0.999998        0.481081E+22
         13106.1         13106.1        0.763005        0.981124        0.471940E+22
         13103.9         13103.9        0.763133        0.987112        0.474758E+22
         13101.7         13101.7        0.76326        0.999917        0.480854E+22
         13099.5         13099.5        0.763388        0.999999        0.480831E+22
         13097.3         13097.3        0.763516        0.999951        0.480746E+22
         13095.1         13095.1        0.763643        0.999979        0.480697E+22
         13092.9         13092.9        0.763771        0.998024        0.479694E+22
         13090.8         13090.7        0.763899        0.999561        0.480370E+22
         13088.6         13088.5        0.764027        0.999554        0.480304E+22
         13086.4         13086.4        0.764155        0.999326        0.480132E+22
         13084.2         13084.2        0.764283        0.998182        0.479519E+22
         13082         13082        0.76441        0.999988        0.480324E+22
         13079.8         13079.8        0.764538        1        0.480267E+22
         13077.6         13077.6        0.764666        1        0.480204E+22
         13075.4         13075.4        0.764795        0.998348        0.479348E+22
         13073.2         13073.2        0.764923        0.999999        0.480078E+22
         13071         13071        0.765051        0.999898        0.479966E+22
         13068.9         13068.8        0.765179        1        0.479952E+22
         13066.7         13066.6        0.765307        0.858586        0.412026E+22
         13064.5         13064.5        0.765436        0.99998        0.479816E+22
         13062.3         13062.3        0.765564        0.985872        0.472985E+22
         13060.1         13060.1        0.765692        0.988085        0.473984E+22
         13057.9         13057.9        0.765821        0.999159        0.479233E+22
         13055.7         13055.7        0.765949        0.944447        0.452931E+22
         13053.5         13053.5        0.766078        0.992346        0.475840E+22
         13051.3         13051.3        0.766206        0.789003        0.378285E+22
         13049.1         13049.1        0.766335        0.620174        0.297301E+22
         13047         13046.9        0.766463        0.986919        0.473050E+22
         13044.8         13044.7        0.766592        0.998607        0.478589E+22
         13042.6         13042.6        0.766721        0.88844        0.425734E+22
         13040.4         13040.4        0.76685        0.999909        0.479086E+22
         13038.2         13038.2        0.766978        0.994451        0.476408E+22
         13036         13036        0.767107        0.985468        0.472042E+22
         13033.8         13033.8        0.767236        0.99597        0.477009E+22
         13031.6         13031.6        0.767365        0.999895        0.478825E+22
         13029.4         13029.4        0.767494        0.999023        0.478344E+22
         13027.2         13027.2        0.767623        0.999877        0.478690E+22
         13025         13025        0.767752        0.999677        0.478530E+22
         13022.9         13022.8        0.767881        0.999504        0.478384E+22
         13020.7         13020.7        0.76801        0.983119        0.470479E+22
         13018.5         13018.5        0.76814        0.99858        0.477814E+22
         13016.3         13016.3        0.768269        0.984236        0.470888E+22
         13014.1         13014.1        0.768398        0.993991        0.475492E+22
         13011.9         13011.9        0.768527        0.999174        0.477907E+22
         13009.7         13009.7        0.768657        0.999992        0.478235E+22
         13007.5         13007.5        0.768786        0.999857        0.478106E+22
         13005.3         13005.3        0.768916        0.999394        0.477821E+22
         13003.1         13003.1        0.769045        0.957181        0.457577E+22
         13001         13000.9        0.769175        0.999003        0.477506E+22
         12998.8         12998.8        0.769304        0.978735        0.467755E+22
         12996.6         12996.6        0.769434        0.983367        0.469906E+22
         12994.4         12994.4        0.769564        0.99738        0.476538E+22
         12992.2         12992.2        0.769693        0.999445        0.477461E+22
         12990         12990        0.769823        0.995782        0.475647E+22
         12987.8         12987.8        0.769953        0.999629        0.477420E+22
         12985.6         12985.6        0.770083        0.977927        0.466993E+22
         12983.4         12983.4        0.770213        0.999571        0.477264E+22
         12981.2         12981.2        0.770343        0.999936        0.477374E+22
         12979.1         12979        0.770473        0.996415        0.475629E+22
         12976.9         12976.9        0.770603        0.999996        0.477274E+22
         12974.7         12974.7        0.770733        0.999721        0.477079E+22
         12972.5         12972.5        0.770863        0.998912        0.476628E+22
         12970.3         12970.3        0.770993        0.993091        0.473787E+22
         12968.1         12968.1        0.771123        0.991434        0.472933E+22
         12965.9         12965.9        0.771253        0.671902        0.320467E+22
         12963.7         12963.7        0.771384        0.716286        0.341589E+22
         12961.5         12961.5        0.771514        0.997373        0.475572E+22
         12959.4         12959.3        0.771644        0.474499        0.226222E+22
         12957.2         12957.1        0.771775        0.744441        0.354872E+22
         12955         12955        0.771905        0.997267        0.475329E+22
         12952.8         12952.8        0.772036        0.999919        0.476528E+22
         12950.6         12950.6        0.772166        0.99769        0.475401E+22
         12948.4         12948.4        0.772297        0.987325        0.470398E+22
         12946.2         12946.2        0.772428        0.991201        0.472181E+22
         12944         12944        0.772558        0.98877        0.470959E+22
         12941.8         12941.8        0.772689        0.998067        0.475322E+22
         12940.7         12940.7        0.772755        0.996033        0.474321E+22